#XDI/1.0  XASDataLibrary/1.0
# Column.1: energy eV
# Column.2: i0
# Column.3: itrans
# Mono.d_spacing: 3.134770
# Mono.name: None
# Beamline.name: APS 13-ID-E
# Element.symbol: Cu
# Element.edge: K
# Data.upload_date: 2020-05-17 13:26:30
# Data.submitted_by: Matt Newville
# Sample.name: Cu
# Sample.formula: Cu
# Sample.preparation: metal foil
# Sample.notes: sample for 'Cu_Foil_rt_2016Foils_13IDE_01.xdi', uploaded 2020-05-07 19:57:14, {"temperature": "room temperature"}
# Reference.mode: no reference spectra
# ///
# 
#-----------------------
#   energy         i0            itrans      
 8929.000000000   42442.99986000   120835.9998730
 8934.000000000   55892.99986000   159247.9998730
 8939.000000000   59960.99986000   170876.9998730
 8944.000000000   61965.99986000   176618.9998730
 8949.000000000   61850.99986000   176229.9998730
 8954.000000000   60511.99986000   172187.9998730
 8959.000000000   60109.99986000   170603.9998730
 8964.000000000   60864.99986000   171907.9998730
 8969.000000000   61730.99986000   172557.9998730
 8974.000000000   61705.99986000   167754.9998730
 8974.099993000   61164.99986000   166126.9998730
 8974.199987000   60711.99986000   164717.9998730
 8974.299980000   59225.99986000   160521.9998730
 8974.399973000   57856.99986000   156631.9998730
 8974.499967000   57315.99986000   154975.9998730
 8974.599960000   56993.99986000   153908.9998730
 8974.699953000   56749.99986000   153045.9998730
 8974.799947000   56708.99986000   152722.9998730
 8974.899940000   56488.99986000   151940.9998730
 8974.999933000   56546.99986000   151891.9998730
 8975.099927000   56433.99986000   151394.9998730
 8975.199920000   56232.99986000   150622.9998730
 8975.299913000   56044.99986000   149867.9998730
 8975.399907000   56090.99986000   149758.9998730
 8975.499900000   55889.99986000   148956.9998730
 8975.599893000   55835.99986000   148558.9998730
 8975.699887000   55830.99986000   148269.9998730
 8975.799880000   55979.99986000   148373.9998730
 8975.899873000   56002.99986000   148145.9998730
 8975.999867000   55934.99986000   147678.9998730
 8976.099860000   55994.99986000   147503.9998730
 8976.199853000   56080.99986000   147414.9998730
 8976.299847000   56073.99986000   147047.9998730
 8976.399840000   56434.99986000   147637.9998730
 8976.499833000   56479.99986000   147339.9998730
 8976.599827000   56570.99986000   147169.9998730
 8976.699820000   56626.99986000   146875.9998730
 8976.799813000   56504.99986000   146101.9998730
 8976.899807000   56591.99986000   145848.9998730
 8976.999800000   56575.99986000   145316.9998730
 8977.099793000   56652.99986000   144982.9998730
 8977.199787000   56654.99986000   144425.9998730
 8977.299780000   56693.99986000   143899.9998730
 8977.399773000   56692.99986000   143282.9998730
 8977.499767000   56789.99986000   142846.9998730
 8977.599760000   56808.99986000   142155.9998730
 8977.699753000   56928.99986000   141668.9998730
 8977.799747000   56900.99986000   140750.9998730
 8977.899740000   56927.99986000   139920.9998730
 8977.999733000   56797.99986000   138671.9998730
 8978.099726667   56734.99986000   137466.9998730
 8978.199720000   56739.99986000   136335.9998730
 8978.299713000   56471.99986000   134461.9998730
 8978.399707000   56468.99986000   133110.9998730
 8978.499700000   55885.99986000   130301.9998730
 8978.599693000   55752.99986000   128413.9998730
 8978.699687000   55889.99986000   127019.9998730
 8978.799680000   55926.99986000   125184.9998730
 8978.899673000   55913.99986000   123206.9998730
 8978.999667000   56030.99986000   121163.9998730
 8979.099660000   56063.99986000   118727.9998730
 8979.199653000   56133.99986000   116110.9998730
 8979.299647000   56188.99986000   113183.9998730
 8979.399640000   56260.99986000   109986.9998730
 8979.499633000   56207.99986000   106299.9998730
 8979.599627000   56268.99986000   102546.9998730
 8979.699620000   56308.99986000   98494.99987300
 8979.799613000   56390.99986000   94617.99987300
 8979.899607000   56437.99986000   90226.99987300
 8979.999600000   56524.99986000   85811.99987300
 8980.099593000   56609.99986000   81379.99987300
 8980.199587000   56655.99986000   76899.99987300
 8980.299580000   56459.99986000   72221.99987300
 8980.399573000   56526.99986000   68195.99987300
 8980.499567000   56615.99986000   64343.99987300
 8980.599560000   56541.99986000   60727.99987300
 8980.699553000   56563.99986000   57399.99987300
 8980.799547000   56617.99986000   54417.99987300
 8980.899540000   56693.99986000   51828.99987300
 8980.999533000   56630.99986000   49489.99987300
 8981.099527000   56613.99986000   47522.99987300
 8981.199520000   56531.99986000   45801.99987300
 8981.299513000   56555.99986000   44435.99987300
 8981.399507000   56524.99986000   43244.99987300
 8981.499500000   56633.99986000   42383.99987300
 8981.599493000   56549.99986000   41481.99987300
 8981.699487000   56111.99986000   40483.99987300
 8981.799480000   56072.99986000   39886.99987300
 8981.899473000   56133.99986000   39464.99987300
 8981.999467000   56013.99986000   39024.99987300
 8982.099460000   56075.99986000   38793.99987300
 8982.199453000   56144.99986000   38644.99987300
 8982.299447000   56147.99986000   38536.99987300
 8982.399440000   56179.99986000   38503.99987300
 8982.499433000   56271.99986000   38588.99987300
 8982.599427000   56359.99986000   38720.99987300
 8982.699420000   56382.99986000   38872.99987300
 8982.799413000   56188.99986000   38917.99987300
 8982.899407000   56181.99986000   39139.99987300
 8982.999400000   56241.99986000   39441.99987300
 8983.099393000   56122.99986000   39625.99987300
 8983.199387000   56231.99986000   40017.99987300
 8983.299380000   56291.99986000   40380.99987300
 8983.399373000   56252.99986000   40677.99987300
 8983.499367000   56343.99986000   41073.99987300
 8983.599360000   56397.99986000   41429.99987300
 8983.699353000   56452.99986000   41757.99987300
 8983.799347000   56297.99986000   41907.99987300
 8983.899340000   56424.99986000   42234.99987300
 8983.999333000   56275.99986000   42311.99987300
 8984.099327000   56323.99986000   42484.99987300
 8984.199320000   56377.99986000   42615.99987300
 8984.299313000   56484.99986000   42715.99987300
 8984.399307000   56558.99986000   42739.99987300
 8984.499300000   56108.99986000   42301.99987300
 8984.599293000   55882.99986000   41982.99987300
 8984.699287000   55882.99986000   41761.99987300
 8984.799280000   55934.99986000   41534.99987300
 8984.899273000   56032.99986000   41280.99987300
 8984.999267000   56081.99986000   40941.99987300
 8985.099260000   56089.99986000   40532.99987300
 8985.199253000   56219.99986000   40181.99987300
 8985.299247000   56277.99986000   39775.99987300
 8985.399240000   56340.99986000   39320.99987300
 8985.499233000   56417.99986000   38870.99987300
 8985.599227000   56499.99986000   38422.99987300
 8985.699220000   56402.99986000   37847.99987300
 8985.799213000   55769.99986000   36926.99987300
 8985.899207000   55891.99986000   36530.99987300
 8985.999200000   55971.99986000   36140.99987300
 8986.099193000   56017.99986000   35718.99987300
 8986.199187000   55953.99986000   35239.99987300
 8986.299180000   56105.99986000   34927.99987300
 8986.399173000   56100.99986000   34526.99987300
 8986.499167000   56185.99986000   34189.99987300
 8986.599160000   56226.99986000   33857.99987300
 8986.699153000   56277.99986000   33561.99987300
 8986.799147000   56366.99986000   33273.99987300
 8986.899140000   56392.99986000   32942.99987300
 8986.999133000   56481.99986000   32661.99987300
 8987.099127000   56578.99986000   32385.99987300
 8987.199120000   56562.99986000   32039.99987300
 8987.299113000   56457.99986000   31638.99987300
 8987.399107000   56488.99986000   31332.99987300
 8987.499100000   56603.99986000   31051.99987300
 8987.599093000   56593.99986000   30686.99987300
 8987.699087000   56592.99986000   30319.99987300
 8987.799080000   56667.99986000   29980.99987300
 8987.899073000   56351.99986000   29436.99987300
 8987.999067000   56342.99986000   29039.99987300
 8988.099060000   56391.99986000   28687.99987300
 8988.199053000   56468.99986000   28322.99987300
 8988.299047000   56505.99986000   27920.99987300
 8988.399040000   56551.99986000   27522.99987300
 8988.499033000   56489.99986000   27060.99987300
 8988.599027000   56550.99986000   26640.99987300
 8988.699020000   56571.99986000   26228.99987300
 8988.799013000   56652.99986000   25808.99987300
 8988.899007000   56665.99986000   25335.99987300
 8988.999000000   56582.99986000   24826.99987300
 8989.626986000   56623.99986000   21847.99987300
 8990.274188000   56896.99986000   18831.99987300
 8990.940519000   56762.99986000   15759.99987300
 8991.625980000   56965.99986000   13128.99987300
 8992.330570000   56883.99986000   10940.99987300
 8993.054291000   56841.99986000   9309.999873000
 8993.797141000   57304.99986000   8279.999873000
 8994.559120000   57319.99986000   7783.999873000
 8995.340229000   57222.99986000   7878.999873000
 8996.140468000   57420.99986000   8445.999873000
 8996.959837000   57577.99986000   9218.999873000
 8997.798335000   57474.99986000   9973.999873000
 8998.655962000   57549.99986000   10597.99987300
 8999.532720000   57277.99986000   10801.99987300
 9000.428607000   56052.99986000   10303.99987300
 9001.343623000   57564.99986000   9739.999873000
 9002.277770000   57920.99986000   8666.999873000
 9003.231046000   58081.99986000   7775.999873000
 9004.203451000   58151.99986000   7531.999873000
 9005.194986000   58117.99986000   7973.999873000
 9006.205651000   58147.99986000   8821.999873000
 9007.235446000   56969.99986000   9480.999873000
 9008.284370000   58231.99986000   10358.99987300
 9009.352424000   58517.99986000   11031.99987300
 9010.439607000   56961.99986000   11412.99987300
 9011.545920000   58422.99986000   12235.99987300
 9012.671363000   58623.99986000   12418.99987300
 9013.815935000   58783.99986000   12321.99987300
 9014.979637000   58718.99986000   12068.99987300
 9016.162469000   58599.99986000   11686.99987300
 9017.364430000   57488.99986000   10965.99987300
 9018.585521000   58788.99986000   10575.99987300
 9019.825741000   58710.99986000   9908.999873000
 9021.085091000   58864.99986000   9349.999873000
 9022.363571000   58801.99986000   8815.999873000
 9023.661180000   58649.99986000   8307.999873000
 9024.977920000   59156.99986000   7974.999873000
 9026.313788000   59114.99986000   7762.999873000
 9027.668787000   59392.99986000   7899.999873000
 9029.042914540   59137.99986000   8273.999873000
 9030.436172000   59204.99986000   8874.999873000
 9031.848559000   59069.99986000   9538.999873000
 9033.280076000   59463.99986000   10262.99987300
 9034.730723000   59100.99986000   10686.99987300
 9036.200499000   59119.99986000   10983.99987300
 9037.689405000   59326.99986000   11132.99987300
 9039.197440000   59523.99986000   11098.99987300
 9040.724605000   60088.99986000   10990.99987300
 9042.270900000   60505.99986000   10841.99987300
 9043.836324000   60662.99986000   10778.99987300
 9045.420878000   60149.99986000   10767.99987300
 9047.024562000   60178.99986000   10847.99987300
 9048.647375000   59601.99986000   10622.99987300
 9050.289318000   60239.99986000   10472.99987300
 9051.950391000   60544.99986000   10299.99987300
 9053.630593000   59829.99986000   10120.99987300
 9055.329925000   59205.99986000   10024.99987300
 9057.048386000   59795.99986000   10023.99987300
 9058.785977000   58096.99986000   9486.999873000
 9060.542698000   56876.99986000   8977.999873000
 9062.318549000   57002.99986000   8756.999873000
 9064.113529000   56276.99986000   8478.999873000
 9065.927638000   55209.99986000   8156.999873000
 9067.760878000   55578.99986000   8012.999873000
 9069.613246000   54399.99986000   7592.999873000
 9071.484745000   54528.99986000   7378.999873000
 9073.375373000   55127.99986000   7365.999873000
 9075.285131000   54771.99986000   7425.999873000
 9077.214019000   54964.99986000   7745.999873000
 9079.162036000   55081.99986000   8202.999873000
 9081.129183000   56114.99986000   8836.999873000
 9083.115459000   55856.99986000   9220.999873000
 9085.120865000   56279.99986000   9692.999873000
 9087.145401000   56791.99986000   10118.99987300
 9089.189066000   57237.99986000   10371.99987300
 9091.251861000   57187.99986000   10544.99987300
 9093.333786000   57269.99986000   10952.99987300
 9095.434840000   58384.99986000   11693.99987300
 9097.555024000   58578.99986000   12193.99987300
 9099.694337000   58906.99986000   12459.99987300
 9101.852780000   59420.99986000   12435.99987300
 9104.030353000   59551.99986000   12077.99987300
 9106.227056000   59918.99986000   11629.99987300
 9108.442888000   59957.99986000   11133.99987300
 9110.677849000   60206.99986000   10778.99987300
 9112.931941000   60405.99986000   10549.99987300
 9115.205162000   60562.99986000   10473.99987300
 9117.497512000   60711.99986000   10517.99987300
 9119.808993000   60598.99986000   10513.99987300
 9122.139603000   60669.99986000   10371.99987300
 9124.489342000   60874.99986000   9965.999873000
 9126.858211000   61055.99986000   9320.999873000
 9129.246210000   61199.99986000   8703.999873000
 9131.653339000   61084.99986000   8341.999873000
 9134.079597000   60897.99986000   8278.999873000
 9136.524984000   60043.99986000   8305.999873000
 9138.989502000   59649.99986000   8475.999873000
 9141.473149000   59876.99986000   8817.999873000
 9143.975925000   59540.99986000   9224.999873000
 9146.497832000   58443.99986000   9669.999873000
 9149.038868000   58102.99986000   10356.99987300
 9151.599033000   57902.99986000   11159.99987300
 9154.178328000   57790.99986000   12040.99987300
 9156.776753000   57587.99986000   12820.99987300
 9159.394308000   57328.99986000   13277.99987300
 9162.030992000   54921.99986000   12719.99987300
 9164.686806000   57772.99986000   12900.99987300
 9167.361749000   55658.99986000   11691.99987300
 9170.055822000   58043.99986000   11422.99987300
 9172.769025000   58789.99986000   11016.99987300
 9175.501357000   58410.99986000   10651.99987300
 9178.252819000   58491.99986000   10577.99987300
 9181.023411000   57207.99986000   10409.99987300
 9183.813132000   57357.99986000   10553.99987300
 9186.621983000   57214.99986000   10607.99987300
 9189.449963000   57669.99986000   10733.99987300
 9192.297073000   57573.99986000   10789.99987300
 9195.163313000   57868.99986000   10989.99987300
 9198.048683000   58372.99986000   11195.99987300
 9200.953182000   57794.99986000   10951.99987300
 9203.876810000   57988.99986000   10581.99987300
 9206.819569000   58105.99986000   10130.99987300
 9209.781457000   57822.99986000   9822.999873000
 9212.762474000   57616.99986000   9750.999873000
 9215.762622000   57868.99986000   9864.999873000
 9218.781899000   57882.99986000   10037.99987300
 9221.820305000   58111.99986000   10373.99987300
 9224.877841000   58744.99986000   10929.99987300
 9227.954507000   59119.99986000   11551.99987300
 9231.050303000   59057.99986000   12096.99987300
 9234.165228000   59008.99986000   12599.99987300
 9237.299282000   59217.99986000   13014.99987300
 9240.452467000   59238.99986000   13183.99987300
 9243.624781000   59121.99986000   13130.99987300
 9246.816224000   58316.99986000   12855.99987300
 9250.026798000   58053.99986000   12758.99987300
 9253.256501000   58705.99986000   12890.99987300
 9256.505333000   58786.99986000   12866.99987300
 9259.773295000   58701.99986000   12796.99987300
 9263.060387000   57725.99986000   12501.99987300
 9266.366609000   56290.99986000   12065.99987300
 9269.691960000   56042.99986000   11871.99987300
 9273.036441000   56584.99986000   11873.99987300
 9276.400051000   57105.99986000   11902.99987300
 9279.782791000   57274.99986000   11888.99987300
 9283.184661000   57901.99986000   11974.99987300
 9286.605660000   57906.99986000   11930.99987300
 9290.045789000   58505.99986000   12015.99987300
 9293.505048000   58713.99986000   12027.99987300
 9296.983436000   58933.99986000   12052.99987300
 9300.480954000   58484.99986000   12018.99987300
 9303.997601000   58573.99986000   12204.99987300
 9307.533378000   59182.99986000   12558.99987300
 9311.088285000   58939.99986000   12754.99987300
 9314.662322000   59057.99986000   13040.99987300
 9318.255488000   58990.99986000   13269.99987300
 9321.867783000   59020.99986000   13444.99987300
 9325.499209000   58991.99986000   13506.99987300
 9329.149764000   58899.99986000   13525.99987300
 9332.819448000   58825.99986000   13596.99987300
 9336.508262000   58880.99986000   13787.99987300
 9340.216206000   58746.99986000   13997.99987300
 9343.943280000   58771.99986000   14219.99987300
 9347.689483000   58257.99986000   14148.99987300
 9351.454816000   58556.99986000   14183.99987300
 9355.239278000   57678.99986000   13966.99987300
 9359.042870000   57817.99986000   14001.99987300
 9362.865592000   57066.99986000   13791.99987300
 9366.707443000   56671.99986000   13668.99987300
 9370.568424000   56733.99986000   13655.99987300
 9374.448535000   57422.99986000   13794.99987300
 9378.347775000   57066.99986000   13687.99987300
 9382.266145000   57616.99986000   13797.99987300
 9386.203645000   57234.99986000   13699.99987300
 9390.160274000   57523.99986000   13778.99987300
 9394.136033000   58001.99986000   13911.99987300
 9398.130921000   57001.99986000   13703.99987300
 9402.144939000   57477.99986000   13892.99987300
 9406.178087000   56688.99986000   13827.99987300
 9410.230365000   55396.99986000   13673.99987300
 9414.301772000   56121.99986000   14047.99987300
 9418.392308000   56674.99986000   14373.99987300
 9422.501975000   56310.99986000   14424.99987300
 9426.630771000   53218.99986000   13722.99987300
 9430.778696000   54236.99986000   14043.99987300
 9434.945751000   54915.99986000   14265.99987300
 9439.131936000   56004.99986000   14616.99987300
 9443.337251000   56787.99986000   14909.99987300
 9447.561695000   55170.99986000   14604.99987300
 9451.805269000   55860.99986000   14926.99987300
 9456.067972000   55872.99986000   15054.99987300
 9460.349805000   56685.99986000   15356.99987300
 9464.650768000   57385.99986000   15614.99987300
 9468.970860000   56920.99986000   15563.99987300
 9473.310082000   57123.99986000   15699.99987300
 9477.668434000   57016.99986000   15721.99987300
 9482.045915000   57400.99986000   15855.99987300
 9486.442526000   57314.99986000   15844.99987300
 9490.858266000   57444.99986000   15878.99987300
 9495.293137000   57313.99986000   15840.99987300
 9499.747136000   57476.99986000   15887.99987300
 9504.220266000   56529.99986000   15632.99987300
 9508.712525000   55944.99986000   15492.99987300
 9513.223914000   56415.99986000   15677.99987300
 9517.754432000   56278.99986000   15729.99987300
 9522.304080000   55734.99986000   15703.99987300
 9526.872858000   54184.99986000   15419.99987300
 9531.460765000   53211.99986000   15279.99987300
 9536.067802000   54161.99986000   15666.99987300
 9540.693968000   53421.99986000   15544.99987300
 9545.339264000   54456.99986000   15933.99987300
 9550.003690000   54246.99986000   15955.99987300
 9554.687246000   54847.99986000   16210.99987300
 9559.389931000   55411.99986000   16454.99987300
 9564.111746000   54254.99986000   16195.99987300
 9568.852690000   54387.99986000   16314.99987300
 9573.612764000   55164.99986000   16633.99987300
 9578.391968000   54540.99986000   16532.99987300
 9583.190301000   54687.99986000   16671.99987300
 9588.007764000   55182.99986000   16911.99987300
 9592.844356000   54450.99986000   16758.99987300
 9597.700079000   52628.99986000   16269.99987300
 9602.574931000   52440.99986000   16270.99987300
 9607.468912000   53115.99986000   16529.99987300
 9612.382023000   54251.99986000   16937.99987300
 9617.314264000   54919.99986000   17197.99987300
 9622.265634000   52613.99986000   16531.99987300
 9627.236134000   52186.99986000   16452.99987300
 9632.225764000   51803.99986000   16390.99987300
 9637.234523000   51262.99986000   16286.99987300
 9642.262412000   51992.99986000   16594.99987300
 9647.309431000   52401.99986000   16807.99987300
 9652.375579000   53906.99986000   17374.99987300
 9657.460857000   54399.99986000   17621.99987300
 9662.565265000   54277.99986000   17687.99987300
 9667.688802000   54269.99986000   17791.99987300
 9672.831468000   54320.99986000   17904.99987300
 9677.993265000   54138.99986000   17936.99987300
 9683.174191000   53887.99986000   17956.99987300
 9688.374247000   53242.99986000   17843.99987300
 9693.593432000   51773.99986000   17454.99987300
 9698.831747000   49632.99986000   16827.99987300
 9704.089192000   50822.99986000   17303.99987300
 9709.365766000   50819.99986000   17392.99987300
 9714.661470000   50484.99986000   17371.99987300
 9719.976303000   49570.99986000   17144.99987300
 9725.310267000   49525.99986000   17215.99987300
 9730.663359000   50964.99986000   17794.99987300
 9736.035582000   50336.99986000   17657.99987300
 9741.426934000   51345.99986000   18079.99987300
 9746.837416000   50134.99986000   17723.99987300
 9752.267027000   50239.99986000   17832.99987300
 9757.715768000   50467.99986000   17979.99987300
 9763.183639000   51280.99986000   18343.99987300
 9768.670639000   51876.99986000   18634.99987300
 9774.176769000   52605.99986000   18971.99987300
 9779.702028000   52578.99986000   19039.99987300
 9785.246418000   50770.99986000   18505.99987300
 9790.809937000   50160.99986000   18362.99987300
 9796.392585000   50385.99986000   18528.99987300
 9801.994363000   48191.99986000   17816.99987300
 9807.615271000   45426.99986000   16875.99987300
 9813.255308000   45920.99986000   17142.99987300
 9818.914475000   46834.99986000   17565.99987300
 9824.592772000   47708.99986000   17982.99987300
 9830.290198000   48574.99986000   18393.99987300
 9836.006754000   49372.99986000   18783.99987300
 9841.742440000   50045.99986000   19128.99987300
 9847.497255000   50955.99986000   19568.99987300
 9853.271200000   50072.99986000   19332.99987300
 9859.064274000   50358.99986000   19542.99987300
 9864.876479000   50780.99986000   19796.99987300
 9870.707812000   50271.99986000   19702.99987300
 9876.558276000   50522.99986000   19895.99987300
 9882.427869000   48099.99986000   19050.99987300
 9888.316592000   45465.99986000   18103.99987300
 9894.224444000   45549.99986000   18218.99987300
 9900.151426000   45596.99986000   18322.99987300
 9906.097537000   46048.99986000   18585.99987300
 9912.062779000   45721.99986000   18532.99987300
 9918.047150000   45872.99986000   18679.99987300
 9924.050650000   46419.99986000   18981.99987300
 9930.073280000   47714.99986000   19594.99987300
 9936.115040000   48643.99986000   20059.99987300
 9942.175930000   49466.99986000   20483.99987300
 9948.255949000   47757.99986000   19891.99987300
 9954.355097000   48142.99986000   20142.99987300
