#XDI/1.0  XASDataLibrary/1.0
# Column.1: energy eV
# Column.2: i0
# Column.3: itrans
# Mono.d_spacing: 3.134770
# Mono.name: None
# Beamline.name: APS 13-ID-E
# Element.symbol: Fe
# Element.edge: K
# Data.upload_date: 2020-05-17 07:45:22
# Data.submitted_by: Matt Newville
# Sample.name: Fe foil  Room Temperature
# Sample.formula: Fe
# Sample.preparation: foil
# Sample.notes: sample for 'Fe_metal_rt_02.xdi', uploaded 2020-05-07 19:57:17, {"reference": "none", "temperature": "Room Temperature"}
# Reference.mode: no reference spectra
# ///
# 
#-----------------------
#   energy         i0            itrans      
 7062.000000000   43954.99986000   86832.99987300
 7067.000000000   44543.99986000   88152.99987300
 7072.000000000   44475.99986000   88156.99987300
 7077.000000000   43743.99986000   86822.99987300
 7082.000000000   43805.99986000   87044.99987300
 7087.000000000   44878.99986000   89209.99987300
 7092.000000000   43714.99986000   86845.99987300
 7097.000000000   46227.99986000   91623.99987300
 7102.000000000   48261.99986000   94988.99987300
 7107.000000000   47287.99986000   90687.99987300
 7107.099993000   39656.99986000   75967.99987300
 7107.199987000   39268.99986000   75132.99987300
 7107.299980000   38929.99986000   74395.99987300
 7107.399973000   38388.99986000   73253.99987300
 7107.499967000   38762.99986000   73876.99987300
 7107.599960000   38690.99986000   73625.99987300
 7107.699953000   38958.99986000   74015.99987300
 7107.799947000   38940.99986000   73863.99987300
 7107.899940000   39375.99986000   74563.99987300
 7107.999933000   39458.99986000   74572.99987300
 7108.099927000   39629.99986000   74753.99987300
 7108.199920000   39568.99986000   74470.99987300
 7108.299913000   39578.99986000   74321.99987300
 7108.399907000   39786.99986000   74514.99987300
 7108.499900000   39647.99986000   74056.99987300
 7108.599893000   39966.99986000   74437.99987300
 7108.699887000   40015.99986000   74289.99987300
 7108.799880000   40266.99986000   74498.99987300
 7108.899873000   40416.99986000   74499.99987300
 7108.999867000   40318.99986000   73997.99987300
 7109.099860000   40397.99986000   73822.99987300
 7109.199853000   40471.99986000   73576.99987300
 7109.299847000   40382.99986000   73010.99987300
 7109.399840000   40369.99986000   72507.99987300
 7109.499833000   40472.99986000   72158.99987300
 7109.599827000   40831.99986000   72211.99987300
 7109.699820000   40584.99986000   71083.99987300
 7109.799813000   40875.99986000   70842.99987300
 7109.899807000   41057.99986000   70256.99987300
 7109.999800000   41086.99986000   69318.99987300
 7110.099793000   41443.99986000   68775.99987300
 7110.199787000   41557.99986000   67663.99987300
 7110.299780000   41607.99986000   66376.99987300
 7110.399773000   41520.99986000   64692.99987300
 7110.499767000   41542.99986000   63151.99987300
 7110.599760000   41415.99986000   61256.99987300
 7110.699753000   41543.99986000   59693.99987300
 7110.799747000   41249.99986000   57588.99987300
 7110.899740000   41587.99986000   56300.99987300
 7110.999733000   41599.99986000   54691.99987300
 7111.099727000   41731.99986000   53249.99987300
 7111.199720000   41990.99986000   52070.99987300
 7111.299713000   40830.99986000   49310.99987300
 7111.399707000   40773.99986000   47980.99987300
 7111.499700000   41102.99986000   47253.99987300
 7111.599693000   41119.99986000   46233.99987300
 7111.699687000   41166.99986000   45362.99987300
 7111.799680000   41556.99986000   44932.99987300
 7111.899673000   41485.99986000   44059.99987300
 7111.999667000   41536.99986000   43413.99987300
 7112.099660000   41872.99986000   43097.99987300
 7112.199653000   41631.99986000   42232.99987300
 7112.299647000   41739.99986000   41737.99987300
 7112.399640000   41968.99986000   41409.99987300
 7112.499633000   41998.99986000   40890.99987300
 7112.599627000   41991.99986000   40351.99987300
 7112.699620000   42264.99986000   40103.99987300
 7112.799613000   42204.99986000   39539.99987300
 7112.899607000   42712.99986000   39529.99987300
 7112.999600000   42835.99986000   39157.99987300
 7113.099593000   42926.99986000   38784.99987300
 7113.199587000   42972.99986000   38358.99987300
 7113.299580000   43041.99986000   37966.99987300
 7113.399573000   43317.99986000   37785.99987300
 7113.499567000   43472.99986000   37492.99987300
 7113.599560000   43404.99986000   37050.99987300
 7113.699553000   43082.99986000   36402.99987300
 7113.799547000   43458.99986000   36376.99987300
 7113.899540000   43452.99986000   36038.99987300
 7113.999533000   43540.99986000   35808.99987300
 7114.099527000   43779.99986000   35726.99987300
 7114.199520000   43751.99986000   35444.99987300
 7114.299513000   43541.99986000   35045.99987300
 7114.399507000   43063.99986000   34450.99987300
 7114.499500000   43274.99986000   34436.99987300
 7114.599493000   43462.99986000   34416.99987300
 7114.699487000   43276.99986000   34118.99987300
 7114.799480000   43317.99986000   34012.99987300
 7114.899473000   43556.99986000   34088.99987300
 7114.999467000   43558.99986000   33989.99987300
 7115.099460000   43661.99986000   33968.99987300
 7115.199453000   43796.99986000   33997.99987300
 7115.299447000   43867.99986000   33975.99987300
 7115.399440000   43756.99986000   33813.99987300
 7115.499433000   43903.99986000   33851.99987300
 7115.599427000   43866.99986000   33744.99987300
 7115.699420000   43939.99986000   33724.99987300
 7115.799413000   44254.99986000   33877.99987300
 7115.899407000   44427.99986000   33914.99987300
 7115.999400000   44603.99986000   33930.99987300
 7116.099393000   44656.99986000   33837.99987300
 7116.199387000   44470.99986000   33540.99987300
 7116.299380000   44642.99986000   33492.99987300
 7116.399373000   44353.99986000   33059.99987300
 7116.499367000   44467.99986000   32904.99987300
 7116.599360000   44539.99986000   32679.99987300
 7116.699353000   44775.99986000   32546.99987300
 7116.799347000   44921.99986000   32303.99987300
 7116.899340000   44203.99986000   31421.99987300
 7116.999333000   44229.99986000   31031.99987300
 7117.099327000   44363.99986000   30706.99987300
 7117.199320000   44566.99986000   30385.99987300
 7117.299313000   44805.99986000   30080.99987300
 7117.399307000   44884.99986000   29627.99987300
 7117.499300000   45008.99986000   29213.99987300
 7117.599293000   45183.99986000   28796.99987300
 7117.699287000   45286.99986000   28344.99987300
 7117.799280000   45408.99986000   27887.99987300
 7117.899273000   45690.99986000   27540.99987300
 7117.999267000   45043.99986000   26625.99987300
 7118.099260000   45207.99986000   26199.99987300
 7118.199253000   45322.99986000   25756.99987300
 7118.299247000   45420.99986000   25297.99987300
 7118.399240000   45510.99986000   24852.99987300
 7118.499233000   45821.99986000   24518.99987300
 7118.599227000   45930.99986000   24089.99987300
 7118.699220000   46073.99986000   23675.99987300
 7118.799213000   46164.99986000   23255.99987300
 7118.899207000   46349.99986000   22855.99987300
 7118.999200000   46120.99986000   22278.99987300
 7119.099193000   46281.99986000   21877.99987300
 7119.199187000   46360.99986000   21468.99987300
 7119.299180000   46100.99986000   20884.99987300
 7119.399173000   45643.99986000   20243.99987300
 7119.499167000   45879.99986000   19898.99987300
 7119.599160000   45893.99986000   19475.99987300
 7119.699153000   45932.99986000   19050.99987300
 7119.799147000   46194.99986000   18743.99987300
 7119.899140000   46357.99986000   18388.99987300
 7119.999133000   46399.99986000   18008.99987300
 7120.099127000   46591.99986000   17682.99987300
 7120.199120000   46666.99986000   17335.99987300
 7120.299113000   46808.99986000   17012.99987300
 7120.399107000   47015.99986000   16741.99987300
 7120.499100000   47152.99986000   16443.99987300
 7120.599093000   47350.99986000   16195.99987300
 7120.699087000   47472.99986000   15917.99987300
 7120.799080000   47275.99986000   15552.99987300
 7120.899073000   47346.99986000   15285.99987300
 7120.999067000   46690.99986000   14812.99987300
 7121.099060000   46556.99986000   14510.99987300
 7121.199053000   46750.99986000   14332.99987300
 7121.299047000   47013.99986000   14180.99987300
 7121.399040000   47108.99986000   13989.99987300
 7121.499033000   47202.99986000   13799.99987300
 7121.599027000   47407.99986000   13659.99987300
 7121.699020000   47270.99986000   13422.99987300
 7121.799013000   47338.99986000   13255.99987300
 7121.899007000   47407.99986000   13091.99987300
 7121.999000000   47192.99986000   12862.99987300
 7122.626986000   48155.99986000   12166.99987300
 7123.274188000   48882.99986000   11551.99987300
 7123.940519000   49133.99986000   10933.99987300
 7124.625980000   49269.99986000   10367.99987300
 7125.330570000   49400.99986000   9837.999873000
 7126.054291000   49677.99986000   9316.999873000
 7126.797141000   50813.99986000   8876.999873000
 7127.559120000   50611.99986000   8106.999873000
 7128.340229000   50828.99986000   7351.999873000
 7129.140468000   50619.99986000   6627.999873000
 7129.959837000   51791.99986000   6308.999873000
 7130.798335000   51902.99986000   6252.999873000
 7131.655962000   53246.99986000   6803.999873000
 7132.532720000   52747.99986000   7413.999873000
 7133.428607000   53850.99986000   8319.999873000
 7134.343623000   54052.99986000   8982.999873000
 7135.277770000   54396.99986000   9447.999873000
 7136.231046000   55085.99986000   9721.999873000
 7137.203451000   55434.99986000   9683.999873000
 7138.194986000   55816.99986000   9452.999873000
 7139.205651000   56122.99986000   9148.999873000
 7140.235446000   56808.99986000   8996.999873000
 7141.284370000   56677.99986000   8903.999873000
 7142.352424000   58265.99986000   9242.999873000
 7143.439607000   57918.99986000   9317.999873000
 7144.545920000   58679.99986000   9451.999873000
 7145.671363000   59131.99986000   9309.999873000
 7146.815935000   59040.99986000   8879.999873000
 7147.979637000   59325.99986000   8458.999873000
 7149.162469000   59377.99986000   8122.999873000
 7150.364430000   59308.99986000   7916.999873000
 7151.585521000   59282.99986000   7778.999873000
 7152.825741000   58828.99986000   7636.999873000
 7154.085091000   59056.99986000   7689.999873000
 7155.363571000   59690.99986000   7876.999873000
 7156.661180000   59977.99986000   8021.999873000
 7157.977920000   58062.99986000   7816.999873000
 7159.313788000   58374.99986000   7870.999873000
 7160.668787000   57776.99986000   7821.999873000
 7162.042915000   57155.99986000   7822.999873000
 7163.436172000   56965.99986000   7915.999873000
 7164.848559000   57130.99986000   8053.999873000
 7166.280076000   57259.99986000   8156.999873000
 7167.730723000   57078.99986000   8200.999873000
 7169.200499000   54139.99986000   7870.999873000
 7170.689405000   54831.99986000   8125.999873000
 7172.197440000   53003.99986000   8095.999873000
 7173.724605000   52222.99986000   8285.999873000
 7175.270900000   50907.99986000   8433.999873000
 7176.836324000   50872.99986000   8787.999873000
 7178.420878000   49678.99986000   8851.999873000
 7180.024562000   49139.99986000   8864.999873000
 7181.647375000   48779.99986000   8766.999873000
 7183.289318000   48977.99986000   8692.999873000
 7184.950391000   50135.99986000   8676.999873000
 7186.630593000   49347.99986000   8225.999873000
 7188.329925000   50338.99986000   8046.999873000
 7190.048386000   50420.99986000   7704.999873000
 7191.785977000   50624.99986000   7387.999873000
 7193.542698000   50246.99986000   7139.999873000
 7195.318549000   51036.99986000   7294.999873000
 7197.113529000   51372.99986000   7579.999873000
 7198.927638000   51554.99986000   7973.999873000
 7200.760878000   52293.99986000   8549.999873000
 7202.613246000   52844.99986000   9177.999873000
 7204.484745000   52189.99986000   9614.999873000
 7206.375373000   53359.99986000   10205.99987300
 7208.285131000   54002.99986000   10277.99987300
 7210.214019000   54351.99986000   9728.999873000
 7212.162036000   54095.99986000   8642.999873000
 7214.129183000   54216.99986000   7536.999873000
 7216.115459000   54278.99986000   6629.999873000
 7218.120865000   54315.99986000   6053.999873000
 7220.145401000   54056.99986000   5803.999873000
 7222.189066000   53680.99986000   5917.999873000
 7224.251861000   54620.99986000   6522.999873000
 7226.333786000   54562.99986000   7253.999873000
 7228.434840000   54703.99986000   8162.999873000
 7230.555024000   54574.99986000   9109.999873000
 7232.694337000   55571.99986000   10231.99987300
 7234.852780000   53880.99986000   10647.99987300
 7237.030353000   53227.99986000   10911.99987300
 7239.227056000   55371.99986000   11414.99987300
 7241.442888000   57348.99986000   11586.99987300
 7243.677849000   59055.99986000   11497.99987300
 7245.931941000   56709.99986000   10625.99987300
 7248.205162000   56467.99986000   10328.99987300
 7250.497512000   52676.99986000   9632.999873000
 7252.808993000   52113.99986000   9712.999873000
 7255.139603000   51553.99986000   9817.999873000
 7257.489342000   48699.99986000   9297.999873000
 7259.858211000   48683.99986000   9128.999873000
 7262.246210000   47986.99986000   8787.999873000
 7264.653339000   46849.99986000   8427.999873000
 7267.079597000   48594.99986000   8585.999873000
 7269.524984000   50030.99986000   8565.999873000
 7271.989502000   50986.99986000   8360.999873000
 7274.473149000   51880.99986000   8238.999873000
 7276.975925000   53542.99986000   8370.999873000
 7279.497832000   53842.99986000   8266.999873000
 7282.038868000   55839.99986000   8341.999873000
 7284.599033000   57221.99986000   8294.999873000
 7287.178328000   58671.99986000   8336.999873000
 7289.776753000   59244.99986000   8515.999873000
 7292.394308000   60918.99986000   9237.999873000
 7295.030992000   61827.99986000   10112.99987300
 7297.686806000   62485.99986000   11002.99987300
 7300.361749000   62999.99986000   11798.99987300
 7303.055822000   63843.99986000   12529.99987300
 7305.769025000   63702.99986000   12905.99987300
 7308.501357000   62585.99986000   12885.99987300
 7311.252819000   60273.99986000   12431.99987300
 7314.023411000   63152.99986000   13003.99987300
 7316.813132000   63084.99986000   13017.99987300
 7319.621983000   64268.99986000   13311.99987300
 7322.449963000   63722.99986000   13235.99987300
 7325.297073000   59791.99986000   12436.99987300
 7328.163313000   60136.99986000   12532.99987300
 7331.048683000   54132.99986000   11396.99987300
 7333.953182000   52757.99986000   11310.99987300
 7336.876810000   54495.99986000   11845.99987300
 7339.819569000   55382.99986000   12033.99987300
 7342.781457000   56266.99986000   11975.99987300
 7345.762474000   56800.99986000   11629.99987300
 7348.762622000   58638.99986000   11492.99987300
 7351.781899000   61970.99986000   11674.99987300
 7354.820305000   58115.99986000   10580.99987300
 7357.877841000   57471.99986000   10150.99987300
 7360.954507000   57082.99986000   9832.999873000
 7364.050303000   57165.99986000   9712.999873000
 7367.165228000   56372.99986000   9603.999873000
 7370.299282000   57377.99986000   10005.99987300
 7373.452467000   57881.99986000   10576.99987300
 7376.624781000   60060.99986000   11768.99987300
 7379.816224000   58640.99986000   12460.99987300
 7383.026798000   61520.99986000   13968.99987300
 7386.256501000   61305.99986000   14380.99987300
 7389.505333000   62118.99986000   14614.99987300
 7392.773295000   59233.99986000   13768.99987300
 7396.060387000   57202.99986000   13125.99987300
 7399.366609000   55358.99986000   12655.99987300
 7402.691960000   56174.99986000   12873.99987300
 7406.036441000   54490.99986000   12499.99987300
 7409.400051000   53411.99986000   12232.99987300
 7412.782791000   52871.99986000   12087.99987300
 7416.184661000   53828.99986000   12320.99987300
 7419.605660000   54932.99986000   12656.99987300
 7423.045789000   53142.99986000   12422.99987300
 7426.505048000   54387.99986000   12900.99987300
 7429.983436000   51555.99986000   12265.99987300
 7433.480954000   53873.99986000   12782.99987300
 7436.997601000   55844.99986000   13142.99987300
 7440.533378000   57943.99986000   13390.99987300
 7444.088285000   59807.99986000   13500.99987300
 7447.662322000   61618.99986000   13635.99987300
 7451.255488000   60118.99986000   13182.99987300
 7454.867783000   63473.99986000   13924.99987300
 7458.499209000   65228.99986000   14369.99987300
 7462.149764000   65311.99986000   14516.99987300
 7465.819448000   65676.99986000   14859.99987300
 7469.508262000   64607.99986000   14984.99987300
 7473.216206000   67478.99986000   16053.99987300
 7476.943280000   68239.99986000   16563.99987300
 7480.689483000   70821.99986000   17476.99987300
 7484.454816000   61904.99986000   15571.99987300
 7488.239278000   55529.99986000   14274.99987300
 7492.042870000   55725.99986000   14583.99987300
 7495.865592000   55434.99986000   14633.99987300
 7499.707443000   56017.99986000   14773.99987300
 7503.568424000   57708.99986000   15152.99987300
 7507.448535000   58733.99986000   15383.99987300
 7511.347775000   58759.99986000   15426.99987300
 7515.266145000   59492.99986000   15709.99987300
 7519.203645000   60849.99986000   16155.99987300
 7523.160274000   64487.99986000   17171.99987300
 7527.136033000   63198.99986000   16828.99987300
 7531.130921000   62954.99986000   16746.99987300
 7535.144939000   61888.99986000   16485.99987300
 7539.178087000   61505.99986000   16467.99987300
 7543.230365000   63658.99986000   17147.99987300
 7547.301772000   64113.99986000   17353.99987300
 7551.392308000   66090.99986000   17910.99987300
 7555.501975000   64197.99986000   17317.99987300
 7559.630771000   62387.99986000   16710.99987300
 7563.778696000   60630.99986000   16185.99987300
 7567.945751000   63184.99986000   16927.99987300
 7572.131936000   66754.99986000   18080.99987300
 7576.337251000   60633.99986000   16696.99987300
 7580.561695000   56696.99986000   15905.99987300
 7584.805269000   57609.99986000   16410.99987300
 7589.067972000   62206.99986000   17900.99987300
 7593.349805000   62718.99986000   18151.99987300
 7597.650768000   64426.99986000   18694.99987300
 7601.970860000   65853.99986000   19171.99987300
 7606.310082000   67223.99986000   19701.99987300
 7610.668434000   67266.99986000   19900.99987300
 7615.045915000   68296.99986000   20377.99987300
 7619.442526000   67887.99986000   20322.99987300
 7623.858266000   68749.99986000   20584.99987300
 7628.293137000   69180.99986000   20747.99987300
 7632.747136000   69141.99986000   20864.99987300
 7637.220266000   69797.99986000   21269.99987300
 7641.712525000   70483.99986000   21705.99987300
 7646.223914000   65914.99986000   20485.99987300
 7650.754432000   66673.99986000   20855.99987300
 7655.304080000   64554.99986000   20283.99987300
 7659.872858000   61585.99986000   19408.99987300
 7664.460765000   62436.99986000   19691.99987300
 7669.067802000   62622.99986000   19745.99987300
 7673.693968000   62541.99986000   19712.99987300
 7678.339264000   62629.99986000   19740.99987300
 7683.003690000   64522.99986000   20370.99987300
 7687.687246000   64409.99986000   20439.99987300
 7692.389931000   66268.99986000   21192.99987300
 7697.111746000   67874.99986000   21883.99987300
 7701.852690000   69591.99986000   22601.99987300
 7706.612764000   65572.99986000   21451.99987300
 7711.391968000   65174.99986000   21497.99987300
 7716.190301000   60436.99986000   20112.99987300
 7721.007764000   61466.99986000   20620.99987300
 7725.844356000   60936.99986000   20564.99987300
 7730.700079000   60272.99986000   20437.99987300
 7735.574931000   61591.99986000   20976.99987300
 7740.468912000   62721.99986000   21468.99987300
 7745.382023000   64387.99986000   22160.99987300
 7750.314264000   66461.99986000   22982.99987300
 7755.265634000   66987.99986000   23271.99987300
 7760.236134000   68503.99986000   23946.99987300
 7765.225764000   70307.99986000   24760.99987300
 7770.234523000   71076.99986000   25220.99987300
 7775.262412000   73453.99986000   26251.99987300
 7780.309431000   75379.99986000   27100.99987300
 7785.375579000   71942.99986000   26005.99987300
 7790.460857000   73465.99986000   26699.99987300
 7795.565265000   69843.99986000   25497.99987300
 7800.688802000   70181.99986000   25723.99987300
 7805.831468000   66731.99986000   24545.99987300
 7810.993265000   68302.99986000   25217.99987300
 7816.174191000   69865.99986000   25900.99987300
 7821.374247000   71334.99986000   26576.99987300
 7826.593432000   72493.99986000   27133.99987300
 7831.831747000   65207.99986000   24509.99987300
 7837.089192000   64874.99986000   24502.99987300
 7842.365766000   65352.99986000   24813.99987300
 7847.661470000   66757.99986000   25488.99987300
 7852.976303000   67478.99986000   25913.99987300
 7858.310267000   67243.99986000   25975.99987300
 7863.663359000   65177.99986000   25349.99987300
 7869.035582000   63410.99986000   24826.99987300
 7874.426934000   62049.99986000   24452.99987300
 7879.837416000   60577.99986000   24027.99987300
 7885.267027000   59751.99986000   23850.99987300
 7890.715768000   62564.99986000   25123.99987300
 7896.183639000   66434.99986000   26832.99987300
 7901.670639000   68978.99986000   28034.99987300
 7907.176769000   70563.99986000   28851.99987300
 7912.702028000   69337.99986000   28502.99987300
 7918.246418000   69945.99986000   28906.99987300
 7923.809937000   70680.99986000   29378.99987300
 7929.392585000   71338.99986000   29820.99987300
 7934.994363000   70655.99986000   29674.99987300
 7940.615271000   67593.99986000   28511.99987300
 7946.255308000   73244.99986000   31032.99987300
 7951.914475000   70997.99986000   30216.99987300
 7957.592772000   71862.99986000   30746.99987300
 7963.290198000   66247.99986000   28480.99987300
 7969.006754000   66281.99986000   28635.99987300
 7974.742440000   62433.99986000   27093.99987300
 7980.497255000   63763.99986000   27792.99987300
 7986.271200000   64316.99986000   28185.99987300
 7992.064274000   64718.99986000   28523.99987300
 7997.876479000   65378.99986000   28980.99987300
 8003.707812000   65880.99986000   29357.99987300
 8009.558276000   67147.99986000   30084.99987300
 8015.427869000   65740.99986000   29626.99987300
 8021.316592000   66942.99986000   30341.99987300
 8027.224444000   66663.99986000   30385.99987300
 8033.151426000   68531.99986000   31422.99987300
 8039.097537000   68237.99986000   31473.99987300
 8045.062779000   63510.99986000   29458.99987300
 8051.047150000   64335.99986000   30023.99987300
 8063.073280000   61150.99986000   28885.99987300
 8069.115040000   63853.99986000   30340.99987300
 8075.175930000   66823.99986000   31944.99987300
 8081.255949000   68679.99986000   33023.99987300
