#XDI/1.0  XASDataLibrary/1.0
# Column.1: energy eV
# Column.2: i0
# Column.3: itrans
# Mono.d_spacing: 3.134770
# Mono.name: None
# Beamline.name: APS 13-ID-E
# Element.symbol: Mo
# Element.edge: K
# Data.upload_date: 2020-05-17 13:40:13
# Data.submitted_by: Matt Newville
# Sample.name: Mo foil
# Sample.formula: Mo
# Sample.preparation: foil from standard foil box
# Reference.mode: no reference spectra
# ///
# 
#-----------------------
#   energy         i0            itrans      
 19950.00000000   14317.99986000   60409.99985000
 19955.00000000   14234.99986000   59919.99985000
 19960.00000000   14210.99986000   59633.99985000
 19965.00000000   14144.99986000   59134.99985000
 19970.00000000   14165.99986000   58937.99985000
 19975.00000000   14143.99986000   58485.99985000
 19980.00000000   14126.99986000   57907.99985000
 19985.00000000   14120.99986000   57108.99985000
 19990.00000000   14110.99986000   55717.99985000
 19990.20000000   14121.99986000   55681.99985000
 19990.40000000   14128.99986000   55639.99985000
 19990.60000000   14151.99986000   55637.99985000
 19990.80000000   14157.99986000   55571.99985000
 19991.00000000   14159.99986000   55504.99985000
 19991.20000000   14138.99986000   55324.99985000
 19991.40000000   14144.99986000   55261.99985000
 19991.60000000   14164.99986000   55241.99985000
 19991.80000000   14163.99986000   55135.99985000
 19992.00000000   14185.99986000   55108.99985000
 19992.20000000   14179.99986000   54975.99985000
 19992.40000000   14179.99986000   54861.99985000
 19992.60000000   14162.99986000   54669.99985000
 19992.80000000   14164.99986000   54575.99985000
 19993.00000000   14140.99986000   54340.99985000
 19993.20000000   14106.99986000   54090.99985000
 19993.40000000   14136.99986000   54043.99985000
 19993.60000000   14140.99986000   53919.99985000
 19993.80000000   14133.99986000   53728.99985000
 19994.00000000   14131.99986000   53555.99985000
 19994.20000000   14124.99986000   53357.99985000
 19994.40000000   14148.99986000   53276.99985000
 19994.60000000   14166.99986000   53137.99985000
 19994.80000000   14170.99986000   52957.99985000
 19995.00000000   14160.99986000   52703.99985000
 19995.20000000   14127.99986000   52350.99985000
 19995.40000000   14139.99986000   52164.99985000
 19995.60000000   14126.99986000   51845.99985000
 19995.80000000   14140.99986000   51653.99985000
 19996.00000000   14134.99986000   51327.99985000
 19996.20000000   14119.99986000   50994.99985000
 19996.40000000   14109.99986000   50602.99985000
 19996.60000000   14114.99986000   50316.99985000
 19996.80000000   14118.99986000   49912.99985000
 19997.00000000   14115.99986000   49548.99985000
 19997.20000000   14114.99986000   49066.99985000
 19997.40000000   14102.99986000   48606.99985000
 19997.60000000   14074.99986000   47993.99985000
 19997.80000000   14079.99986000   47510.99985000
 19998.00000000   14088.99986000   47023.99985000
 19998.20000000   14087.99986000   46402.99985000
 19998.40000000   14082.99986000   45781.99985000
 19998.60000000   14072.99986000   45060.99985000
 19998.80000000   14077.99986000   44430.99985000
 19999.00000000   14095.99986000   43742.99985000
 19999.20000000   14098.99986000   43066.99985000
 19999.40000000   14074.99986000   42175.99985000
 19999.60000000   14077.99986000   41477.99985000
 19999.80000000   14072.99986000   40642.99985000
 20000.00000000   14072.99986000   39935.99985000
 20000.20000000   14053.99986000   39072.99985000
 20000.40000000   14034.99986000   38335.99985000
 20000.60000000   13864.99986000   37110.99985000
 20001.00000000   14110.99986000   37110.99985000
 20001.20000000   14087.99986000   35733.99985000
 20001.40000000   14073.99986000   35139.99985000
 20001.60000000   14079.99986000   34539.99985000
 20001.80000000   14043.99986000   33917.99985000
 20002.00000000   14055.99986000   33393.99985000
 20002.20000000   14077.99986000   32966.99985000
 20002.40000000   14086.99986000   32468.99985000
 20002.60000000   14092.99986000   32065.99985000
 20002.80000000   14082.99986000   31570.99985000
 20003.00000000   14081.99986000   31143.99985000
 20003.20000000   14085.99986000   30696.99985000
 20003.40000000   14089.99986000   30323.99985000
 20003.60000000   14064.99986000   29874.99985000
 20003.80000000   14043.99986000   29396.99985000
 20004.00000000   14034.99986000   29011.99985000
 20004.20000000   14052.99986000   28604.99985000
 20004.40000000   14054.99986000   28233.99985000
 20004.60000000   14057.99986000   27821.99985000
 20004.80000000   14034.99986000   27414.99985000
 20005.00000000   14029.99986000   26982.99985000
 20005.20000000   14056.99986000   26671.99985000
 20005.40000000   14030.99986000   26207.99985000
 20005.60000000   14013.99986000   25819.99985000
 20005.80000000   14007.99986000   25416.99985000
 20006.00000000   14013.99986000   25073.99985000
 20006.20000000   14026.99986000   24756.99985000
 20006.40000000   14016.99986000   24354.99985000
 20006.60000000   14028.99986000   24039.99985000
 20006.80000000   14009.99986000   23648.99985000
 20007.00000000   13997.99986000   23306.99985000
 20007.20000000   13984.99986000   22933.99985000
 20007.40000000   14000.99986000   22660.99985000
 20007.60000000   13988.99986000   22296.99985000
 20007.80000000   13967.99986000   21957.99985000
 20008.00000000   13997.99986000   21665.99985000
 20008.20000000   14006.99986000   21379.99985000
 20008.40000000   13980.99986000   21005.99985000
 20008.60000000   14002.99986000   20736.99985000
 20008.80000000   14019.99986000   20465.99985000
 20009.00000000   13994.99986000   20070.99985000
 20009.20000000   13992.99986000   19754.99985000
 20009.40000000   13975.99986000   19362.99985000
 20009.60000000   13989.99986000   19048.99985000
 20009.80000000   13987.99986000   18660.99985000
 20010.00000000   13986.99986000   18329.99985000
 20010.20000000   13981.99986000   17921.99985000
 20010.40000000   13976.99986000   17558.99985000
 20010.60000000   13980.99986000   17144.99985000
 20010.80000000   13981.99986000   16783.99985000
 20011.00000000   13989.99986000   16424.99985000
 20011.20000000   13998.99986000   16022.99985000
 20011.40000000   13967.99986000   15613.99985000
 20011.60000000   13955.99986000   15202.99985000
 20011.80000000   13964.99986000   14862.99985000
 20012.00000000   13958.99986000   14464.99985000
 20012.20000000   13953.99986000   14131.99985000
 20012.40000000   13945.99986000   13762.99985000
 20012.60000000   13930.99986000   13441.99985000
 20012.80000000   13958.99986000   13143.99985000
 20013.00000000   13962.99986000   12881.99985000
 20013.20000000   13963.99986000   12619.99985000
 20013.40000000   13920.99986000   12305.99985000
 20013.60000000   13932.99986000   12097.99985000
 20013.80000000   13952.99986000   11879.99985000
 20014.00000000   13932.99986000   11668.99985000
 20014.20000000   13901.99986000   11446.99985000
 20014.40000000   13908.99986000   11293.99985000
 20014.60000000   13881.99986000   11112.99985000
 20014.80000000   13890.99986000   10994.99985000
 20015.00000000   13947.99986000   10909.99985000
 20015.20000000   13957.99986000   10819.99985000
 20015.40000000   13944.99986000   10720.99985000
 20015.60000000   13927.99986000   10624.99985000
 20015.80000000   13919.99986000   10553.99985000
 20016.00000000   13920.99986000   10497.99985000
 20016.20000000   13921.99986000   10462.99985000
 20016.40000000   13908.99986000   10423.99985000
 20016.60000000   13892.99986000   10400.99985000
 20016.80000000   13869.99986000   10377.99985000
 20017.00000000   13874.99986000   10394.99985000
 20017.20000000   13883.99986000   10430.99985000
 20017.40000000   13883.99986000   10460.99985000
 20017.60000000   13881.99986000   10497.99985000
 20017.80000000   13854.99986000   10541.99985000
 20018.00000000   13871.99986000   10624.99985000
 20018.20000000   13882.99986000   10713.99985000
 20018.40000000   13857.99986000   10780.99985000
 20018.60000000   13844.99986000   10870.99985000
 20018.80000000   13859.99986000   10977.99985000
 20019.00000000   13842.99986000   11078.99985000
 20019.20000000   13811.99986000   11155.99985000
 20019.40000000   13815.99986000   11263.99985000
 20019.60000000   13826.99986000   11388.99985000
 20019.80000000   13861.99986000   11522.99985000
 20020.00000000   13840.99986000   11610.99985000
 20020.88035200   13832.99986000   11981.99985000
 20021.78240400   13811.99986000   12156.99985000
 20022.70353100   13792.99986000   12143.99985000
 20023.64373400   13759.99986000   11966.99985000
 20024.60301100   13723.99986000   11703.99985000
 20025.58136300   13742.99986000   11473.99985000
 20026.57879000   13685.99986000   11233.99985000
 20027.59529200   13759.99986000   11181.99985000
 20028.63086900   13718.99986000   11118.99985000
 20029.68552100   13669.99986000   11098.99985000
 20030.75924800   13636.99986000   11107.99985000
 20031.85205000   13658.99986000   11129.99985000
 20032.96392700   13647.99986000   11067.99985000
 20034.09487900   13666.99986000   10949.99985000
 20035.24490500   13566.99986000   10684.99985000
 20036.41400700   13551.99986000   10460.99985000
 20037.60218400   13478.99986000   10197.99985000
 20038.80943500   13551.99986000   10042.99985000
 20040.03576200   13483.99986000   9769.999850000
 20041.28116300   13461.99986000   9507.999850000
 20042.54563900   13456.99986000   9278.999850000
 20043.82919100   13415.99986000   9101.999850000
 20045.13181700   13382.99986000   9070.999850000
 20046.45351800   13336.99986000   9219.999850000
 20047.79429400   13270.99986000   9515.999850000
 20049.15414500   13218.99986000   9890.999850000
 20050.53307100   13235.99986000   10315.99985000
 20051.93107200   13190.99986000   10622.99985000
 20053.34814800   13218.99986000   10884.99985000
 20054.78429900   13178.99986000   10990.99985000
 20056.23952400   13006.99986000   10884.99985000
 20057.71382500   13094.99986000   10908.99985000
 20059.20720100   13041.99986000   10750.99985000
 20060.71965100   12968.99986000   10542.99985000
 20062.25117700   12974.99986000   10402.99985000
 20063.80177700   12965.99986000   10303.99985000
 20065.37145300   12819.99986000   10169.99985000
 20066.96020300   12836.99986000   10220.99985000
 20068.56802800   12802.99986000   10263.99985000
 20070.19492800   12783.99986000   10340.99985000
 20071.84090400   12751.99986000   10409.99985000
 20073.50595400   12757.99986000   10510.99985000
 20075.19007900   12734.99986000   10556.99985000
 20076.89327900   12684.99986000   10517.99985000
 20078.61555400   12727.99986000   10464.99985000
 20080.35690400   12543.99986000   10135.99985000
 20082.11732800   12512.99986000   9866.999850000
 20083.89682800   12643.99986000   9710.999850000
 20085.69540300   12649.99986000   9510.999850000
 20087.51305200   12620.99986000   9375.999850000
 20089.34977700   12652.99986000   9422.999850000
 20091.20557700   12560.99986000   9512.999850000
 20093.08045100   12546.99986000   9766.999850000
 20094.97440000   12641.99986000   10138.99985000
 20096.88742500   12644.99986000   10400.99985000
 20098.81952400   12677.99986000   10579.99985000
 20100.77069800   12687.99986000   10624.99985000
 20102.74094700   12704.99986000   10591.99985000
 20104.73027200   12712.99986000   10525.99985000
 20106.73867100   12844.99986000   10571.99985000
 20108.76614500   12905.99986000   10587.99985000
 20110.81269400   12872.99986000   10535.99985000
 20112.87831700   12885.99986000   10529.99985000
 20114.96301600   12854.99986000   10479.99985000
 20117.06679000   12914.99986000   10491.99985000
 20119.18963900   13100.99986000   10564.99985000
 20121.33156200   13227.99986000   10544.99985000
 20123.49256100   13317.99986000   10465.99985000
 20125.67263400   13244.99986000   10263.99985000
 20127.87178300   13318.99986000   10223.99985000
 20130.09000600   13366.99986000   10240.99985000
 20132.32730500   13555.99986000   10460.99985000
 20134.58367800   13574.99986000   10620.99985000
 20136.85912600   13604.99986000   10814.99985000
 20139.15364900   13651.99986000   11045.99985000
 20141.46724700   13665.99986000   11293.99985000
 20143.79992000   13716.99986000   11567.99985000
 20146.15166800   13610.99986000   11657.99985000
 20148.52249100   13628.99986000   11770.99985000
 20150.91238900   13651.99986000   11831.99985000
 20153.32136200   13666.99986000   11866.99985000
 20155.74941000   13676.99986000   11898.99985000
 20158.19653300   13652.99986000   11875.99985000
 20160.66273000   13673.99986000   11824.99985000
 20163.14800300   13627.99986000   11666.99985000
 20165.65235000   13577.99986000   11504.99985000
 20168.17577300   13623.99986000   11452.99985000
 20170.71827000   13592.99986000   11359.99985000
 20173.27984300   13593.99986000   11323.99985000
 20175.86049000   13582.99986000   11326.99985000
 20178.46021200   13562.99986000   11343.99985000
 20181.07900900   13509.99986000   11273.99985000
 20183.71688100   13457.99986000   11089.99985000
 20186.37382900   13446.99986000   10824.99985000
 20189.04985100   13490.99986000   10571.99985000
 20191.74494700   13465.99986000   10331.99985000
 20194.45911900   13531.99986000   10279.99985000
 20197.19236600   13437.99986000   10236.99985000
 20199.94468800   13489.99986000   10443.99985000
 20202.71608500   13415.99986000   10685.99985000
 20205.50655600   13331.99986000   11021.99985000
 20208.31610300   13274.99986000   11434.99985000
 20211.14472400   13316.99986000   11918.99985000
 20213.99242100   13223.99986000   12183.99985000
 20216.85919200   13321.99986000   12448.99985000
 20219.74503900   13226.99986000   12317.99985000
 20222.64996000   13171.99986000   12091.99985000
 20225.57395600   13134.99986000   11880.99985000
 20228.51702700   13162.99986000   11813.99985000
 20231.47917400   13201.99986000   11819.99985000
 20234.46039500   13172.99986000   11755.99985000
 20237.46069100   13108.99986000   11609.99985000
 20240.48006200   13088.99986000   11456.99985000
 20243.51850700   13066.99986000   11260.99985000
 20246.57602800   13042.99986000   11040.99985000
 20249.65262400   13091.99986000   10894.99985000
 20252.74829500   13080.99986000   10738.99985000
 20255.86304000   12970.99986000   10570.99985000
 20258.99686100   13030.99986000   10593.99985000
 20262.14975700   13052.99986000   10614.99985000
 20265.32172700   12988.99986000   10554.99985000
 20268.51277300   13039.99986000   10583.99985000
 20271.72289300   12879.99986000   10490.99985000
 20274.95208800   12913.99986000   10600.99985000
 20278.20035800   12823.99986000   10640.99985000
 20281.46770400   12960.99986000   10906.99985000
 20284.75412400   13110.99986000   11245.99985000
 20288.05961900   13004.99986000   11393.99985000
 20291.38418900   12954.99986000   11546.99985000
 20294.72783400   13208.99986000   11913.99985000
 20298.09055400   13164.99986000   12003.99985000
 20301.47234900   13265.99986000   12211.99985000
 20304.87321800   13353.99986000   12361.99985000
 20308.29316300   13325.99986000   12298.99985000
 20311.73218300   13351.99986000   12166.99985000
 20315.19027700   13345.99986000   11976.99985000
 20318.66744700   13385.99986000   11841.99985000
 20322.16369100   13302.99986000   11609.99985000
 20325.67901100   13328.99986000   11478.99985000
 20329.21340500   13298.99986000   11327.99985000
 20332.76687400   13336.99986000   11265.99985000
 20336.33941900   13314.99986000   11179.99985000
 20339.93103800   13262.99986000   11102.99985000
 20343.54173200   13296.99986000   11124.99985000
 20347.17150100   13307.99986000   11165.99985000
 20350.82034500   13251.99986000   11190.99985000
 20354.48826400   13177.99986000   11212.99985000
 20358.17525800   13119.99986000   11227.99985000
 20361.88132700   13149.99986000   11276.99985000
 20365.60647100   13091.99986000   11251.99985000
 20369.35068900   12984.99986000   11221.99985000
 20373.11398300   12906.99986000   11280.99985000
 20376.89635200   12851.99986000   11386.99985000
 20380.69779500   12784.99986000   11433.99985000
 20384.51831400   12732.99986000   11400.99985000
 20388.35790700   12499.99986000   11176.99985000
 20392.21657600   12446.99986000   11123.99985000
 20396.09431900   12294.99986000   10996.99985000
 20399.99113700   12173.99986000   10914.99985000
 20403.90703000   12062.99986000   10845.99985000
 20407.84199900   12019.99986000   10785.99985000
 20411.79604200   11743.99986000   10468.99985000
 20415.76916000   11706.99986000   10361.99985000
 20419.76135300   11571.99986000   10208.99985000
 20423.77262100   11567.99986000   10208.99985000
 20427.80296300   11515.99986000   10179.99985000
 20431.85238100   11390.99986000   10094.99985000
 20435.92087400   11343.99986000   10063.99985000
 20440.00844200   11288.99986000   9996.999850000
 20444.11508400   11219.99986000   9891.999850000
 20448.24080200   10934.99986000   9568.999850000
 20452.38559400   10546.99986000   9169.999850000
 20456.54946200   10520.99986000   9135.999850000
 20460.73240400   10511.99986000   9161.999850000
 20464.93442100   10642.99986000   9315.999850000
 20469.15551400   11280.99986000   9895.999850000
 20473.39568100   11422.99986000   10051.99985000
 20477.65492300   11858.99986000   10500.99985000
 20481.93324000   11755.99986000   10502.99985000
 20486.23063200   11924.99986000   10721.99985000
 20490.54709900   12297.99986000   11076.99985000
 20494.88264100   12496.99986000   11245.99985000
 20499.23725800   12510.99986000   11232.99985000
 20503.61095000   12547.99986000   11244.99985000
 20508.00371600   12353.99986000   11063.99985000
 20512.41555800   12085.99986000   10827.99985000
 20516.84647500   11864.99986000   10644.99985000
 20521.29646600   11610.99986000   10438.99985000
 20525.76553300   11548.99986000   10401.99985000
 20530.25367400   12080.99986000   10899.99985000
 20534.76089100   12074.99986000   10903.99985000
 20539.28718200   11984.99986000   10812.99985000
 20543.83254800   12170.99986000   10937.99985000
 20548.39699000   12149.99986000   10886.99985000
 20552.98050600   12107.99986000   10858.99985000
 20557.58309700   11864.99986000   10673.99985000
 20562.20476300   12012.99986000   10819.99985000
 20566.84550400   12067.99986000   10861.99985000
 20571.50532000   11962.99986000   10748.99985000
 20576.18421100   11828.99986000   10600.99985000
 20580.88217600   11873.99986000   10577.99985000
 20585.59921700   11809.99986000   10444.99985000
 20590.33533300   11540.99986000   10167.99985000
 20595.09052300   10917.99986000   9640.999850000
 20599.86478900   11848.99986000   10526.99985000
 20604.65813000   11752.99986000   10516.99985000
 20609.47054500   11351.99986000   10240.99985000
 20614.30203500   11416.99986000   10388.99985000
 20619.15260100   11360.99986000   10373.99985000
 20624.02224100   11161.99986000   10199.99985000
 20628.91095600   10805.99986000   9878.999850000
 20633.81874600   10702.99986000   9801.999850000
 20638.74561200   11342.99986000   10412.99985000
 20643.69155200   11233.99986000   10346.99985000
 20648.65656700   11225.99986000   10339.99985000
 20653.64065600   11437.99986000   10495.99985000
 20658.64382100   11387.99986000   10406.99985000
 20663.66606100   11850.99986000   10793.99985000
 20668.70737600   11827.99986000   10754.99985000
 20673.76776600   12185.99986000   11069.99985000
 20678.84723000   12090.99986000   10986.99985000
 20683.94577000   12080.99986000   10984.99985000
 20689.06338400   12286.99986000   11168.99985000
 20694.20007400   12241.99986000   11118.99985000
 20699.35583800   12234.99986000   11094.99985000
 20704.53067800   12071.99986000   10927.99985000
 20709.72459200   12065.99986000   10901.99985000
 20714.93758100   12062.99986000   10895.99985000
 20720.16964500   11858.99986000   10738.99985000
 20725.42078400   11709.99986000   10642.99985000
 20730.69099800   11662.99986000   10629.99985000
 20735.98028700   11506.99986000   10515.99985000
 20741.28865100   11132.99986000   10222.99985000
 20746.61609000   10799.99986000   9959.999850000
 20751.96260400   10341.99986000   9556.999850000
 20757.32819300   10155.99986000   9392.999850000
 20762.71285700   10532.99986000   9758.999850000
 20768.11659500   10366.99986000   9643.999850000
 20773.53940900   10265.99986000   9581.999850000
 20778.98129700   10129.99986000   9468.999850000
 20784.44226100   9786.999860000   9144.999850000
 20789.92229900   9675.999860000   9017.999850000
 20795.42141300   9861.999860000   9148.999850000
 20800.93960100   9648.999860000   8905.999850000
 20806.47686400   9891.999860000   9100.999850000
 20812.03320200   9799.999860000   9017.999850000
 20817.60861500   9521.999860000   8782.999850000
 20823.20310300   9259.999860000   8558.999850000
 20828.81666600   10054.99986000   9289.999850000
 20834.44930400   10076.99986000   9298.999850000
 20840.10101700   10315.99986000   9505.999850000
 20845.77180500   10649.99986000   9811.999850000
 20851.46166800   11178.99986000   10308.99985000
 20857.17060600   11229.99986000   10378.99985000
 20862.89861800   11187.99986000   10355.99985000
 20868.64570600   11061.99986000   10266.99985000
 20874.41186800   11095.99986000   10332.99985000
 20880.19710600   11184.99986000   10443.99985000
 20886.00141800   11278.99986000   10554.99985000
 20891.82480600   11323.99986000   10617.99985000
 20897.66726800   11139.99986000   10471.99985000
 20903.52880500   11093.99986000   10445.99985000
 20909.40941700   10931.99986000   10288.99985000
 20915.30910400   10624.99986000   9985.999850000
 20921.22786600   10538.99986000   9886.999850000
 20927.16570300   10385.99986000   9728.999850000
 20933.12261500   10319.99986000   9654.999850000
 20939.09860200   10494.99986000   9815.999850000
 20945.09366400   10466.99986000   9797.999850000
 20951.10780100   10379.99986000   9728.999850000
 20957.14101300   10406.99986000   9762.999850000
 20963.19329900   10050.99986000   9439.999850000
 20969.26466100   9854.999860000   9257.999850000
 20975.35509700   10090.99986000   9468.999850000
