#XDI/1.0  XASDataLibrary/1.0
# Column.1: energy eV
# Column.2: i0
# Column.3: itrans
# Mono.d_spacing: 3.134770
# Mono.name: generic Si(111)
# Beamline.name: APS 13-ID-E
# Element.symbol: V
# Element.edge: K
# Data.upload_date: 2020-05-17 07:41:55
# Data.submitted_by: Matt Newville
# Sample.name: V foil
# Sample.formula: V
# Sample.preparation: metal foil, Joe Wong box set
# Sample.notes: sample for 'V_foil.xdi', uploaded 2020-05-07 19:57:38
# Reference.mode: no reference spectra
# ///
# 
#-----------------------
#   energy         i0            itrans      
 5415.000000000   108326.9998600   88172.99987300
 5420.000000000   125814.9998600   103009.9998730
 5425.000000000   136141.9998600   112030.9998730
 5430.000000000   135700.9998600   112151.9998730
 5435.000000000   140856.9998600   116887.9998730
 5440.000000000   139831.9998600   116432.9998730
 5445.000000000   143141.9998600   119504.9998730
 5450.000000000   151537.9998600   126718.9998730
 5455.000000000   152675.9998600   127327.9998730
 5460.000000000   158044.9998600   128963.9998730
 5460.099993000   159001.9998600   129555.9998730
 5460.199987000   152388.9998600   123943.9998730
 5460.299980000   139809.9998600   113551.9998730
 5460.399973000   140213.9998600   113723.9998730
 5460.499967000   138851.9998600   112446.9998730
 5460.599960000   138065.9998600   111649.9998730
 5460.699953000   137073.9998600   110662.9998730
 5460.799947000   136260.9998600   109808.9998730
 5460.899940000   136287.9998600   109654.9998730
 5460.999933000   136096.9998600   109269.9998730
 5461.099927000   136366.9998600   109262.9998730
 5461.199920000   136645.9998600   109244.9998730
 5461.299913000   136421.9998600   108781.9998730
 5461.399907000   136380.9998600   108429.9998730
 5461.499900000   136723.9998600   108340.9998730
 5461.599893000   136413.9998600   107732.9998730
 5461.699887000   136547.9998600   107413.9998730
 5461.799880000   136586.9998600   107031.9998730
 5461.899873000   136192.9998600   106230.9998730
 5461.999867000   136531.9998600   105938.9998730
 5462.099860000   136091.9998600   104988.9998730
 5462.199853000   136508.9998600   104611.9998730
 5462.299847000   136585.9998600   103925.9998730
 5462.399840000   136424.9998600   102961.9998730
 5462.499833000   136842.9998600   102259.9998730
 5462.599826667   136758.9998600   101078.9998730
 5462.699820000   136884.9998600   99857.99987300
 5462.799813000   137074.9998600   98456.99987300
 5462.899807000   137300.9998600   96808.99987300
 5462.999800000   136827.9998600   94336.99987300
 5463.099793000   136161.9998600   91380.99987300
 5463.199787000   135997.9998600   88269.99987300
 5463.299780000   135947.9998600   84814.99987300
 5463.399773000   136233.9998600   81084.99987300
 5463.499767000   136257.9998600   76643.99987300
 5463.599760000   136001.9998600   71796.99987300
 5463.699753000   136458.9998600   67135.99987300
 5463.799747000   136365.9998600   62383.99987300
 5463.899740000   136450.9998600   58035.99987300
 5463.999733000   136686.9998600   54278.99987300
 5464.099727000   136375.9998600   51142.99987300
 5464.199720000   136360.9998600   48986.99987300
 5464.299713000   136328.9998600   47672.99987300
 5464.399707000   136370.9998600   47196.99987300
 5464.499700000   136305.9998600   47288.99987300
 5464.599693000   136603.9998600   47957.99987300
 5464.699687000   136422.9998600   48704.99987300
 5464.799680000   136407.9998600   49665.99987300
 5464.899673000   136202.9998600   50570.99987300
 5464.999667000   136405.9998600   51577.99987300
 5465.099660000   136325.9998600   52394.99987300
 5465.199653000   136209.9998600   53046.99987300
 5465.299647000   136026.9998600   53534.99987300
 5465.399640000   135882.9998600   53894.99987300
 5465.499633000   135743.9998600   54060.99987300
 5465.599627000   135694.9998600   54137.99987300
 5465.699620000   136038.9998600   54228.99987300
 5465.799613000   135843.9998600   53965.99987300
 5465.899607000   136250.9998600   53813.99987300
 5465.999600000   136375.9998600   53396.99987300
 5466.099593000   136067.9998600   52701.99987300
 5466.199587000   135437.9998600   51809.99987300
 5466.299580000   135604.9998600   51148.99987300
 5466.399573000   135372.9998600   50320.99987300
 5466.499567000   135125.9998600   49452.99987300
 5466.599560000   135552.9998600   48817.99987300
 5466.699553000   135387.9998600   47983.99987300
 5466.799547000   135761.9998600   47349.99987300
 5466.899540000   135362.9998600   46421.99987300
 5466.999533000   135469.9998600   45677.99987300
 5467.099527000   135099.9998600   44775.99987300
 5467.199520000   135392.9998600   44091.99987300
 5467.299513000   135286.9998600   43298.99987300
 5467.399507000   135327.9998600   42563.99987300
 5467.499500000   134799.9998600   41641.99987300
 5467.599493000   135027.9998600   41001.99987300
 5467.699487000   135134.9998600   40328.99987300
 5467.799480000   135089.9998600   39635.99987300
 5467.899473000   134943.9998600   38929.99987300
 5467.999467000   134943.9998600   38305.99987300
 5468.099460000   134227.9998600   37533.99987300
 5468.199453000   134424.9998600   37042.99987300
 5468.299447000   134530.9998600   36577.99987300
 5468.399440000   134491.9998600   36108.99987300
 5468.499433000   134366.9998600   35653.99987300
 5468.599427000   134131.9998600   35189.99987300
 5468.699420000   134314.9998600   34868.99987300
 5468.799413000   134569.9998600   34622.99987300
 5468.899407000   133932.9998600   34161.99987300
 5468.999400000   133954.9998600   33896.99987300
 5469.099393000   133879.9998600   33649.99987300
 5469.199387000   133314.9998600   33323.99987300
 5469.299380000   133808.9998600   33268.99987300
 5469.399373000   133928.9998600   33143.99987300
 5469.499367000   133701.9998600   32949.99987300
 5469.599360000   133947.9998600   32897.99987300
 5469.699353000   133294.9998600   32623.99987300
 5469.799347000   132920.9998600   32445.99987300
 5469.899340000   132412.9998600   32236.99987300
 5469.999333000   132301.9998600   32131.99987300
 5470.099327000   132588.9998600   32133.99987300
 5470.199320000   131902.9998600   31890.99987300
 5470.299313000   132093.9998600   31875.99987300
 5470.399307000   132114.9998600   31818.99987300
 5470.499300000   132315.9998600   31796.99987300
 5470.599293000   132219.9998600   31699.99987300
 5470.699287000   132228.9998600   31608.99987300
 5470.799280000   132123.9998600   31480.99987300
 5470.899273000   132431.9998600   31422.99987300
 5470.999267000   132579.9998600   31298.99987300
 5471.099260000   132407.9998600   31064.99987300
 5471.199253000   132556.9998600   30874.99987300
 5471.299247000   132471.9998600   30590.99987300
 5471.399240000   132154.9998600   30210.99987300
 5471.499233000   132274.9998600   29909.99987300
 5471.599227000   131550.9998600   29378.99987300
 5471.699220000   129435.9998600   28502.99987300
 5471.799213000   131530.9998600   28514.99987300
 5471.899207000   131566.9998600   28028.99987300
 5471.999200000   131796.9998600   27564.99987300
 5472.099193000   131587.9998600   26982.99987300
 5472.199187000   131409.9998600   26400.99987300
 5472.299180000   131558.9998600   25849.99987300
 5472.399173000   131364.9998600   25230.99987300
 5472.499167000   131358.9998600   24649.99987300
 5472.599160000   131520.9998600   24103.99987300
 5472.699153000   131326.9998600   23497.99987300
 5472.799147000   131452.9998600   22964.99987300
 5472.899140000   131416.9998600   22404.99987300
 5472.999133000   131560.9998600   21903.99987300
 5473.099127000   131235.9998600   21347.99987300
 5473.199120000   131167.9998600   20863.99987300
 5473.299113000   130823.9998600   20344.99987300
 5473.399107000   130948.9998600   19907.99987300
 5473.499100000   131090.9998600   19508.99987300
 5473.599093000   131250.9998600   19118.99987300
 5473.699087000   131292.9998600   18727.99987300
 5473.799080000   131324.9998600   18357.99987300
 5473.899073000   131161.9998600   17970.99987300
 5473.999067000   131139.9998600   17618.99987300
 5474.099060000   131170.9998600   17295.99987300
 5474.199053000   131346.9998600   17005.99987300
 5474.299047000   131512.9998600   16720.99987300
 5474.399040000   131498.9998600   16427.99987300
 5474.499033000   131556.9998600   16185.99987300
 5474.599027000   131240.9998600   15871.99987300
 5474.699020000   131094.9998600   15597.99987300
 5474.799013000   131252.9998600   15365.99987300
 5474.899007000   130680.9998600   15053.99987300
 5474.999000000   130615.9998600   14817.99987300
 5475.626986000   131348.9998600   13553.99987300
 5476.274188000   131127.9998600   12292.99987300
 5476.940519000   131685.9998600   11217.99987300
 5477.625980000   132102.9998600   10249.99987300
 5478.330570000   132656.9998600   9401.999873000
 5479.054291000   132280.9998600   8569.999873000
 5479.797141000   132990.9998600   7900.999873000
 5480.559120000   133597.9998600   7348.999873000
 5481.340229000   133194.9998600   6797.999873000
 5482.140468000   133574.9998600   6333.999873000
 5482.959837000   133412.9998600   6149.999873000
 5483.798335000   134224.9998600   6513.999873000
 5484.655962000   134660.9998600   7285.999873000
 5485.532720000   135177.9998600   8191.999873000
 5486.428607000   135468.9998600   8921.999873000
 5487.343623000   136025.9998600   9301.999873000
 5488.277770000   135726.9998600   9203.999873000
 5489.231046000   136318.9998600   8849.999873000
 5490.203451000   136469.9998600   8340.999873000
 5491.194986000   136619.9998600   7931.999873000
 5492.205651000   137546.9998600   7799.999873000
 5493.235446000   138140.9998600   7924.999873000
 5494.284370000   137746.9998600   8154.999873000
 5495.352424000   137625.9998600   8373.999873000
 5496.439607000   137895.9998600   8382.999873000
 5497.545920000   137702.9998600   8116.999873000
 5498.671363000   138036.9998600   7820.999873000
 5499.815935000   139597.9998600   7666.999873000
 5500.979637000   139476.9998600   7470.999873000
 5502.162469000   140428.9998600   7367.999873000
 5503.364430000   140391.9998600   7280.999873000
 5504.585521000   140191.9998600   7237.999873000
 5505.825741000   139809.9998600   7159.999873000
 5507.085091000   139862.9998600   7002.999873000
 5508.363571000   140160.9998600   6826.999873000
 5509.661180000   133207.9998600   6370.999873000
 5510.977920000   132927.9998600   6386.999873000
 5512.313788000   131450.9998600   6418.999873000
 5513.668787000   132087.9998600   6577.999873000
 5515.042915000   131902.9998600   6694.999873000
 5516.436172000   131729.9998600   6827.999873000
 5517.848559000   131436.9998600   6998.999873000
 5519.280076000   131929.9998600   7314.999873000
 5520.730723000   131970.9998600   7678.999873000
 5522.200499000   132571.9998600   8098.999873000
 5523.689405000   133781.9998600   8533.999873000
 5525.197440000   134746.9998600   8905.999873000
 5526.724605000   135622.9998600   9237.999873000
 5528.270900000   137294.9998600   9583.999873000
 5529.836324000   138010.9998600   9748.999873000
 5531.420878000   138843.9998600   9712.999873000
 5533.024562000   139783.9998600   9486.999873000
 5534.647375000   140461.9998600   9099.999873000
 5536.289318000   141460.9998600   8648.999873000
 5537.950391000   142369.9998600   8246.999873000
 5539.630593000   142422.9998600   8091.999873000
 5541.329925000   141617.9998600   8220.999873000
 5543.048386000   142036.9998600   8618.999873000
 5544.785977000   143568.9998600   9185.999873000
 5546.542698000   143963.9998600   9747.999873000
 5548.318549000   144342.9998600   10342.99987300
 5550.113529000   144989.9998600   10841.99987300
 5551.927638000   144229.9998600   10896.99987300
 5553.760878000   145414.9998600   10616.99987300
 5555.613246000   145840.9998600   9893.999873000
 5557.484745000   143688.9998600   8896.999873000
 5559.375373000   142361.9998600   8049.999873000
 5561.285131000   142510.9998600   7456.999873000
 5563.214019000   141395.9998600   6992.999873000
 5565.162036000   142032.9998600   6874.999873000
 5567.129183000   143273.9998600   7095.999873000
 5569.115459000   142742.9998600   7494.999873000
 5571.120865000   142388.9998600   8094.999873000
 5573.145401000   142435.9998600   8839.999873000
 5575.189066000   142935.9998600   9616.999873000
 5577.251861000   144076.9998600   10285.99987300
 5579.333786000   141666.9998600   10439.99987300
 5581.434840000   142533.9998600   10615.99987300
 5583.555024000   143852.9998600   10669.99987300
 5585.694337000   144250.9998600   10630.99987300
 5587.852780000   144691.9998600   10696.99987300
 5590.030353000   145918.9998600   10991.99987300
 5592.227056000   146167.9998600   11290.99987300
 5594.442888000   147654.9998600   11677.99987300
 5596.677849000   142108.9998600   11370.99987300
 5598.931941000   138682.9998600   11079.99987300
 5601.205162000   139359.9998600   11048.99987300
 5603.497512000   140743.9998600   11053.99987300
 5605.808993000   144108.9998600   11166.99987300
 5608.139603000   143999.9998600   10895.99987300
 5610.489342000   144948.9998600   10720.99987300
 5612.858211000   145947.9998600   10666.99987300
 5615.246210000   146423.9998600   10562.99987300
 5617.653339000   146839.9998600   10347.99987300
 5620.079597000   147015.9998600   10014.99987300
 5622.524984000   148942.9998600   9772.999873000
 5624.989502000   147991.9998600   9535.999873000
 5627.473149000   147365.9998600   9639.999873000
 5629.975925000   144945.9998600   9825.999873000
 5632.497832000   144406.9998600   10271.99987300
 5635.038868000   142177.9998600   10594.99987300
 5637.599033000   144715.9998600   11238.99987300
 5640.178328000   144020.9998600   11559.99987300
 5642.776753000   146025.9998600   11970.99987300
 5645.394308000   148097.9998600   12328.99987300
 5648.030992000   147272.9998600   12415.99987300
 5650.686806000   145323.9998600   12439.99987300
 5653.361749000   145158.9998600   12617.99987300
 5656.055822000   145627.9998600   12838.99987300
 5658.769025000   145285.9998600   12980.99987300
 5661.501357000   144891.9998600   13140.99987300
 5664.252819000   145926.9998600   13540.99987300
 5667.023411000   147477.9998600   13980.99987300
 5669.813132000   148141.9998600   14216.99987300
 5672.621983000   149212.9998600   14323.99987300
 5675.449963000   148533.9998600   14059.99987300
 5678.297073000   145559.9998600   13526.99987300
 5681.163313000   148265.9998600   13494.99987300
 5684.048683000   148106.9998600   13169.99987300
 5686.953182000   148858.9998600   12934.99987300
 5689.876810000   150272.9998600   12782.99987300
 5692.819569000   149067.9998600   12464.99987300
 5695.781457000   148349.9998600   12346.99987300
 5698.762474000   148880.9998600   12505.99987300
 5701.762622000   147452.9998600   12718.99987300
 5704.781899000   148586.9998600   13314.99987300
 5707.820305000   149933.9998600   13988.99987300
 5710.877841000   146623.9998600   14131.99987300
 5713.954507000   143646.9998600   14118.99987300
 5717.050303000   145097.9998600   14418.99987300
 5720.165228000   146027.9998600   14641.99987300
 5723.299282000   146816.9998600   14910.99987300
 5726.452467000   146712.9998600   15073.99987300
 5729.624781000   148600.9998600   15412.99987300
 5732.816224000   148941.9998600   15528.99987300
 5736.026798000   148575.9998600   15550.99987300
 5739.256501000   148297.9998600   15611.99987300
 5742.505333000   150198.9998600   16003.99987300
 5745.773295000   147223.9998600   15897.99987300
 5749.060387000   144668.9998600   15784.99987300
 5752.366609000   146580.9998600   16114.99987300
 5755.691960000   145097.9998600   16017.99987300
 5759.036441000   146937.9998600   16220.99987300
 5762.400051000   149910.9998600   16462.99987300
 5765.782791000   151907.9998600   16574.99987300
 5769.184661000   153555.9998600   16660.99987300
 5772.605660000   154369.9998600   16705.99987300
 5776.045789000   155277.9998600   16798.99987300
 5779.505048000   156864.9998600   17007.99987300
 5782.983436000   153078.9998600   16697.99987300
 5786.480954000   149994.9998600   16506.99987300
 5789.997601000   148593.9998600   16547.99987300
 5793.533378000   149347.9998600   16824.99987300
 5797.088285000   150569.9998600   17185.99987300
 5800.662322000   151182.9998600   17545.99987300
 5804.255488000   152536.9998600   18015.99987300
 5807.867783000   153990.9998600   18477.99987300
 5811.499209000   155184.9998600   18847.99987300
 5815.149764000   157149.9998600   19239.99987300
 5818.819448000   160125.9998600   19734.99987300
 5822.508262000   160842.9998600   19948.99987300
 5826.216206000   161468.9998600   20171.99987300
 5829.943280000   156070.9998600   19647.99987300
 5833.689483000   157544.9998600   20011.99987300
 5837.454816000   158641.9998600   20256.99987300
 5841.239278000   161971.9998600   20768.99987300
 5845.042870000   164388.9998600   21200.99987300
 5848.865592000   163609.9998600   21232.99987300
 5852.707443000   167622.9998600   21935.99987300
 5856.568424000   168540.9998600   22212.99987300
 5860.448535000   162707.9998600   21554.99987300
 5864.347775000   162230.9998600   21584.99987300
 5868.266145000   165144.9998600   22022.99987300
 5872.203645000   168889.9998600   22585.99987300
 5876.160274000   172099.9998600   23156.99987300
 5880.136033000   158469.9998600   21475.99987300
 5884.130921000   157695.9998600   21590.99987300
 5888.144939000   153497.9998600   21250.99987300
 5892.178087000   155179.9998600   21705.99987300
 5896.230365000   141262.9998600   19937.99987300
 5900.301772000   158473.9998600   22565.99987300
 5904.392308000   160507.9998600   23041.99987300
 5908.501975000   156428.9998600   22648.99987300
 5912.630771000   151315.9998600   22124.99987300
 5916.778696000   152542.9998600   22509.99987300
 5920.945751000   151301.9998600   22485.99987300
 5925.131936000   144162.9998600   21578.99987300
 5929.337251000   155819.9998600   23461.99987300
 5933.561695000   148219.9998600   22514.99987300
 5937.805269000   154386.9998600   23647.99987300
 5942.067972000   162664.9998600   25152.99987300
 5946.349805000   165106.9998600   25771.99987300
 5950.650768000   156667.9998600   24660.99987300
 5954.970860000   153375.9998600   24354.99987300
 5959.310082000   151633.9998600   24249.99987300
 5963.668434000   148013.9998600   23840.99987300
 5968.045915000   143193.9998600   23183.99987300
 5972.442526000   156718.9998600   25541.99987300
 5976.858266000   159520.9998600   26138.99987300
 5981.293137000   162525.9998600   26803.99987300
 5985.747136000   156288.9998600   25953.99987300
 5990.220266000   156086.9998600   26119.99987300
 5994.712525000   154723.9998600   26083.99987300
 5999.223914000   153687.9998600   26116.99987300
 6003.754432000   154531.9998600   26473.99987300
 6008.304080000   152803.9998600   26398.99987300
 6012.872858000   154738.9998600   26965.99987300
 6017.460765000   150887.9998600   26507.99987300
 6022.067802000   153279.9998600   27136.99987300
 6026.693968000   151543.9998600   27033.99987300
 6031.339264000   150985.9998600   27149.99987300
 6036.003690000   152235.9998600   27581.99987300
 6040.687246000   153618.9998600   28067.99987300
 6045.389931000   154839.9998600   28483.99987300
 6050.111746000   157001.9998600   29096.99987300
 6054.852690000   160000.9998600   29935.99987300
 6059.612764000   162566.9998600   30636.99987300
 6064.391968000   163057.9998600   30979.99987300
 6069.190301000   153156.9998600   29316.99987300
 6074.007764000   155233.9998600   29944.99987300
 6078.844356000   156501.9998600   30412.99987300
 6083.700079000   157843.9998600   30897.99987300
 6088.574931000   161343.9998600   31815.99987300
 6093.468912000   159820.9998600   31738.99987300
 6098.382023000   161033.9998600   32212.99987300
 6103.314264000   165622.9998600   33365.99987300
 6108.265634000   168868.9998600   34269.99987300
 6113.236134000   148590.9998600   30351.99987300
 6118.225764000   153007.9998600   31481.99987300
 6123.234523000   151141.9998600   31310.99987300
 6128.262412000   151939.9998600   31702.99987300
 6133.309431000   147688.9998600   31052.99987300
 6138.375579000   148086.9998600   31365.99987300
 6143.460857000   150172.9998600   32053.99987300
 6148.565265000   150832.9998600   32446.99987300
 6153.688802000   154471.9998600   33489.99987300
 6158.831468000   153619.9998600   33566.99987300
 6163.993265000   155728.9998600   34295.99987300
 6169.174191000   153499.9998600   34069.99987300
 6174.374247000   154122.9998600   34482.99987300
 6179.593432000   148434.9998600   33477.99987300
 6184.831747000   149243.9998600   33933.99987300
 6190.089192000   151256.9998600   34650.99987300
 6195.365766000   146293.9998600   33784.99987300
 6200.661470000   146940.9998600   34194.99987300
 6205.976303000   150327.9998600   35243.99987300
 6211.310267000   153624.9998600   36290.99987300
 6216.663359000   154522.9998600   36783.99987300
 6222.035582000   149459.9998600   35868.99987300
 6227.426934000   147956.9998600   35793.99987300
 6232.837416000   151567.9998600   36940.99987300
 6238.267027000   150586.9998600   36982.99987300
 6243.715768000   152097.9998600   37646.99987300
 6249.183639000   156878.9998600   39124.99987300
 6254.670639000   150023.9998600   37712.99987300
 6260.176769000   151994.9998600   38503.99987300
 6265.702028000   150577.9998600   38450.99987300
 6271.246418000   152915.9998600   39345.99987300
 6276.809937000   146016.9998600   37861.99987300
 6282.392585000   148242.9998600   38748.99987300
 6287.994363000   146409.9998600   38574.99987300
 6293.615271000   148674.9998600   39492.99987300
 6299.255308000   150996.9998600   40419.99987300
 6304.914475000   151729.9998600   40936.99987300
 6310.592772000   152612.9998600   41508.99987300
 6316.290198000   153071.9998600   41973.99987300
 6322.006754000   154716.9998600   42767.99987300
 6327.742440000   153465.9998600   42762.99987300
 6333.497255000   154151.9998600   43303.99987300
 6339.271200000   154580.9998600   43754.99987300
 6345.064274000   156555.9998600   44665.99987300
 6350.876479000   147498.9998600   42404.99987300
 6356.707812000   148311.9998600   42976.99987300
 6362.558276000   146127.9998600   42655.99987300
 6368.427869000   147934.9998600   43512.99987300
 6374.316592000   148462.9998600   43944.99987300
 6380.224443900   149164.9998600   44540.99987300
 6386.151426000   144168.9998600   43400.99987300
 6392.097537000   141153.9998600   42817.99987300
 6398.062779000   139902.9998600   42757.99987300
 6404.047150000   141606.9998600   43622.99987300
 6410.050650000   143575.9998600   44558.99987300
 6416.073280000   146656.9998600   45857.99987300
 6422.115040000   143136.9998600   45118.99987300
 6428.175930000   146018.9998600   46375.99987300
 6434.255949000   147380.9998600   47161.99987300
 6440.355097000   147546.9998600   47592.99987300
